* Measurement data measured by REW V5.20
* Source: Trace Arithmetic result Merge B to A
* Format: Trace Arithmetic result Merge B to A
* Dated: Dec 28, 2020 10:03:29 PM
* REW Settings:
*  C-weighting compensation: Off
*  Target level: 75.0 dB
* Note: 
* Measurement: Antdroid HP Target v1.1
* Smoothing: 1/48 octave
* Frequency Step: 1/24 octave
* Start Frequency: 20.600 Hz
*
* Freq(Hz)	SPL(dB)	Phase(degrees)
20.600000	79.484375	0
21.200001	79.571289	0
21.799999	79.659477	0
22.400000	79.744232	0
23.000000	79.822189	0
23.600000	79.891487	0
24.299999	79.960831	0
25.000000	80.018562	0
25.799999	80.072411	0
26.500000	80.110710	0
27.200001	80.142082	0
28.000000	80.170456	0
29.000000	80.195564	0
30.000000	80.209908	0
30.700001	80.214035	0
31.500000	80.213448	0
32.500000	80.206131	0
33.500000	80.193565	0
34.500000	80.178207	0
35.500000	80.162384	0
36.500000	80.148026	0
37.500000	80.136345	0
38.700001	80.126427	0
40.000000	80.124031	0
41.200001	80.165085	0
42.500000	80.209419	0
43.700001	80.244446	0
45.000000	80.276711	0
46.200001	80.301987	0
47.500000	80.325302	0
48.700001	80.343773	0
50.000000	80.361115	0
51.500000	80.378357	0
53.000000	80.393143	0
54.500000	80.405830	0
56.000000	80.416595	0
58.000000	80.428101	0
60.000000	80.436241	0
61.500000	80.440033	0
63.000000	80.441772	0
65.000000	80.441010	0
67.000000	80.437065	0
69.000000	80.430763	0
71.000000	80.423103	0
73.000000	80.415024	0
75.000000	80.407265	0
77.500000	80.398621	0
80.000000	80.391312	0
82.500000	80.385071	0
85.000000	80.379524	0
87.500000	80.374245	0
90.000000	80.368866	0
92.500000	80.363045	0
95.000000	80.356560	0
97.500000	80.349258	0
100.000000	80.341026	0
103.000000	80.329697	0
106.000000	80.316467	0
109.000000	80.301010	0
112.000000	80.283043	0
115.000000	80.262367	0
118.000000	80.238991	0
122.000000	80.204071	0
125.000000	80.175705	0
128.000000	80.146179	0
132.000000	80.106224	0
136.000000	80.067017	0
140.000000	80.029594	0
145.000000	79.986023	0
150.000000	79.945686	0
155.000000	79.907761	0
160.000000	79.871582	0
165.000000	79.837006	0
170.000000	79.804291	0
175.000000	79.773773	0
180.000000	79.745476	0
185.000000	79.719070	0
190.000000	79.693909	0
195.000000	79.669266	0
200.000000	79.644524	0
206.000000	79.614326	0
212.000000	79.583641	0
218.000000	79.552834	0
224.000000	79.522148	0
230.000000	79.491531	0
236.000000	79.460716	0
243.000000	79.424431	0
250.000000	79.388237	0
258.000000	79.348335	0
265.000000	79.315926	0
272.000000	79.286491	0
280.000000	79.256226	0
290.000000	79.221138	0
300.000000	79.184189	0
307.000000	79.154167	0
315.000000	79.113609	0
325.000000	79.052872	0
335.000000	78.983543	0
345.000000	78.911499	0
355.000000	78.843666	0
365.000000	78.785637	0
375.000000	78.740593	0
387.000000	78.705505	0
400.000000	78.691956	0
412.000000	78.702248	0
425.000000	78.735870	0
437.000000	78.782539	0
450.000000	78.842407	0
462.000000	78.899582	0
475.000000	78.957382	0
487.000000	79.002441	0
500.000000	79.038887	0
515.000000	79.063751	0
530.000000	79.073685	0
545.000000	79.075836	0
560.000000	79.077980	0
580.000000	79.091377	0
600.000000	79.124199	0
615.000000	79.162216	0
630.000000	79.209763	0
650.000000	79.283440	0
670.000000	79.362923	0
690.000000	79.440918	0
710.000000	79.509018	0
730.000000	79.559235	0
750.000000	79.587555	0
775.000000	79.596985	0
800.000000	79.595116	0
825.000000	79.602928	0
850.000000	79.633347	0
875.000000	79.688599	0
900.000000	79.762184	0
925.000000	79.842110	0
950.000000	79.915588	0
975.000000	79.973297	0
1000.000000	80.011314	0
1030.000000	80.032990	0
1060.000000	80.037178	0
1090.000000	80.034599	0
1120.000000	80.033524	0
1150.000000	80.039955	0
1180.000000	80.059990	0
1220.000000	80.120483	0
1250.000000	80.200745	0
1280.000000	80.316422	0
1320.000000	80.523041	0
1360.000000	80.768211	0
1400.000000	81.018600	0
1450.000000	81.300827	0
1500.000000	81.533913	0
1550.000000	81.726723	0
1600.000000	81.898590	0
1650.000000	82.067291	0
1700.000000	82.245445	0
1750.000000	82.441864	0
1800.000000	82.662262	0
1850.000000	82.908249	0
1900.000000	83.177361	0
1950.000000	83.464317	0
2000.000000	83.762436	0
2060.000000	84.124863	0
2120.000000	84.480881	0
2180.000000	84.819878	0
2240.000000	85.134514	0
2300.000000	85.420967	0
2360.000000	85.677666	0
2430.000000	85.939514	0
2500.000000	86.164574	0
2580.000000	86.389816	0
2650.000000	86.575836	0
2720.000000	86.766411	0
2800.000000	86.998734	0
2900.000000	87.304199	0
3000.000000	87.600220	0
3070.000000	87.787369	0
3150.000000	87.973389	0
3250.000000	88.159004	0
3350.000000	88.287613	0
3450.000000	88.354332	0
3550.000000	88.358719	0
3650.000000	88.307617	0
3750.000000	88.213516	0
3870.000000	88.065109	0
4000.000000	87.892471	0
4120.000000	87.760391	0
4250.000000	87.694321	0
4370.000000	87.730652	0
4500.000000	87.859489	0
4620.000000	88.007736	0
4750.000000	88.132172	0
4870.000000	88.173111	0
5000.000000	88.119453	0
5150.000000	87.933968	0
5300.000000	87.643593	0
5450.000000	87.291824	0
5600.000000	86.918396	0
5800.000000	86.422752	0
6000.000000	85.930725	0
6150.000000	85.548622	0
6300.000000	85.140915	0
6500.000000	84.542595	0
6700.000000	83.880951	0
6900.000000	83.182663	0
7100.000000	82.506287	0
7300.000000	81.930733	0
7500.000000	81.517731	0
7750.000000	81.217712	0
8000.000000	81.004509	0
8250.000000	80.683105	0
8500.000000	80.145813	0
8750.000000	79.411026	0
9000.000000	78.613937	0
9250.000000	77.947647	0
9500.000000	77.531189	0
9750.000000	77.321365	0
10000.000000	77.199699	0
10300.000000	77.084679	0
10600.000000	77.038261	0
10900.000000	77.118469	0
11200.000000	77.286865	0
11500.000000	77.424820	0
11800.000000	77.414856	0
12200.000000	77.055374	0
12500.000000	76.513420	0
12800.000000	75.782318	0
13200.000000	74.656250	0
13600.000000	73.600418	0
14000.000000	72.875748	0
14500.000000	72.619629	0
15000.000000	72.943878	0
15500.000000	73.476242	0
16000.000000	73.876129	0
16500.000000	73.987129	0
17000.000000	73.845985	0
17500.000000	73.596344	0
18000.000000	73.365829	0
18500.000000	73.211281	0
19000.000000	73.141426	0
19500.000000	73.126770	0
