* Measurement data measured by REW V5.20.13
* Source: Headset (2- USB-C to 3.5mm Headphone Jack Adapter), MICROPHONE (Master Volume), R, volume: 0.250. Timing signal peak level -27.5 dBFS, measurement signal peak level -27.2 dBFS
* Format: 512k Log Swept Sine, 1 sweep at -6.0 dBFS using an acoustic timing reference
* Dated: May 25, 2023 6:57:44 PM
* REW Settings:
*  C-weighting compensation: Off
*  Target level: 75.0 dB
* Note: Delay -0.2141 ms (-73 mm, -2.89 in) using estimated IR delay relative to Acoustic reference played from  L with no timing offset Clock adjustment: 23.1 ppm
* Measurement: Deva Pro No Grill L
* Smoothing: 1/48 octave
* Frequency Step: 1/24 octave
* Start Frequency: 20.600 Hz
*
* Freq(Hz)	SPL(dB)	Phase(degrees)
20.600000	68.464	-40.0289
21.200001	68.881	-40.0476
21.799999	69.332	-39.6173
22.400000	69.579	-41.4423
23.000000	69.804	-44.3757
23.600000	70.256	-44.7414
24.299999	70.767	-43.3492
25.000000	70.962	-45.1689
25.799999	71.320	-48.9091
26.500000	71.785	-48.8297
27.200001	71.980	-48.4575
28.000000	72.213	-50.8844
29.000000	72.948	-54.1441
30.000000	73.457	-57.1873
30.700001	73.858	-59.2914
31.500000	74.214	-60.9940
32.500000	74.381	-62.7860
33.500000	74.837	-64.0544
34.500000	75.142	-66.2915
35.500000	75.473	-68.9085
36.500000	75.862	-69.2257
37.500000	76.090	-70.7929
38.700001	76.620	-72.6912
40.000000	76.946	-75.5065
41.200001	77.233	-79.0584
42.500000	77.748	-83.4379
43.700001	77.658	-83.5789
45.000000	77.976	-86.7129
46.200001	77.976	-90.2748
47.500000	77.967	-94.2662
48.700001	78.416	-93.3836
50.000000	78.497	-94.7099
51.500000	78.789	-99.5745
53.000000	78.620	-100.5959
54.500000	79.020	-106.0145
56.000000	79.002	-101.9689
58.000000	79.324	-106.8135
60.000000	79.587	-108.7200
61.500000	79.326	-110.3399
63.000000	79.371	-110.7229
65.000000	79.430	-113.6331
67.000000	79.800	-112.8647
69.000000	80.306	-115.5435
71.000000	80.418	-117.6852
73.000000	80.611	-121.0419
75.000000	80.688	-122.7958
77.500000	80.732	-126.1072
80.000000	80.763	-129.3782
82.500000	80.751	-131.9428
85.000000	80.709	-133.7383
87.500000	80.567	-135.0298
90.000000	80.587	-136.9704
92.500000	80.587	-138.9268
95.000000	80.547	-140.7220
97.500000	80.475	-142.0287
100.000000	80.410	-143.0220
103.000000	80.299	-144.5086
106.000000	80.253	-145.7288
109.000000	80.184	-146.5468
112.000000	80.112	-147.5667
115.000000	80.083	-148.4959
118.000000	80.023	-149.2533
122.000000	79.936	-150.3246
125.000000	79.898	-150.9990
128.000000	79.844	-151.3723
132.000000	79.756	-151.8130
136.000000	79.709	-152.6525
140.000000	79.661	-153.0665
145.000000	79.606	-153.7724
150.000000	79.550	-154.0483
155.000000	79.507	-154.3984
160.000000	79.477	-154.7605
165.000000	79.420	-154.9452
170.000000	79.388	-155.2071
175.000000	79.345	-155.4219
180.000000	79.313	-155.2066
185.000000	79.307	-155.4742
190.000000	79.299	-155.5633
195.000000	79.249	-155.4901
200.000000	79.241	-155.4343
206.000000	79.237	-155.4435
212.000000	79.220	-155.5542
218.000000	79.193	-155.2754
224.000000	79.217	-155.0921
230.000000	79.175	-155.0896
236.000000	79.115	-154.7917
243.000000	79.127	-154.5027
250.000000	79.123	-154.3005
258.000000	79.108	-153.8441
265.000000	79.125	-153.2827
272.000000	79.156	-152.8781
280.000000	79.201	-152.6207
290.000000	79.234	-152.0403
300.000000	79.285	-151.9049
307.000000	79.326	-151.4925
315.000000	79.374	-151.1369
325.000000	79.455	-150.9730
335.000000	79.540	-150.8935
345.000000	79.626	-151.2908
355.000000	79.583	-152.0254
365.000000	79.434	-151.9656
375.000000	79.386	-150.7122
387.000000	79.562	-150.4750
400.000000	79.679	-152.3480
412.000000	79.314	-155.3478
425.000000	78.259	-154.5917
437.000000	77.803	-147.8668
450.000000	78.139	-142.8001
462.000000	78.466	-140.4534
475.000000	78.799	-139.2510
487.000000	79.017	-139.0866
500.000000	79.016	-138.7934
515.000000	79.013	-136.8106
530.000000	79.245	-134.7404
545.000000	79.518	-133.9637
560.000000	79.737	-133.7016
580.000000	79.947	-133.6023
600.000000	80.040	-134.0187
615.000000	80.103	-133.8002
630.000000	80.098	-134.4492
650.000000	79.991	-134.5504
670.000000	79.754	-134.8532
690.000000	79.193	-134.6531
710.000000	78.725	-127.9922
730.000000	79.285	-123.4864
750.000000	79.777	-122.8047
775.000000	80.085	-126.1374
800.000000	79.065	-126.5859
825.000000	78.984	-120.7319
850.000000	78.674	-120.6343
875.000000	78.024	-112.2893
900.000000	78.729	-104.9941
925.000000	79.458	-102.3878
950.000000	79.894	-102.5507
975.000000	79.922	-101.7754
1000.000000	79.943	-100.0232
1030.000000	80.258	-96.0434
1060.000000	80.588	-94.9102
1090.000000	80.964	-91.5728
1120.000000	81.626	-91.7202
1150.000000	82.102	-94.5743
1180.000000	81.944	-99.3763
1220.000000	80.875	-102.1779
1250.000000	79.324	-97.9069
1280.000000	79.382	-86.2209
1320.000000	80.453	-83.9005
1360.000000	79.220	-83.3389
1400.000000	79.495	-69.7165
1450.000000	80.840	-65.8478
1500.000000	81.802	-65.7973
1550.000000	82.030	-70.6009
1600.000000	81.220	-70.8045
1650.000000	79.561	-62.2493
1700.000000	81.198	-57.1459
1750.000000	79.643	-66.3361
1800.000000	78.810	-43.8702
1850.000000	79.923	-35.1652
1900.000000	80.308	-32.6737
1950.000000	81.293	-25.8022
2000.000000	81.941	-25.5528
2060.000000	82.553	-22.3723
2120.000000	82.441	-15.9534
2180.000000	83.878	-11.7358
2240.000000	84.879	-11.1315
2300.000000	85.660	-15.3431
2360.000000	85.257	-9.2047
2430.000000	86.699	-9.5200
2500.000000	86.862	-16.0506
2580.000000	85.812	-7.3060
2650.000000	86.653	-6.1277
2720.000000	87.220	-4.0909
2800.000000	86.785	-1.1619
2900.000000	86.585	2.7047
3000.000000	86.748	7.6675
3070.000000	86.893	7.6224
3150.000000	85.682	18.6600
3250.000000	86.398	28.5107
3350.000000	86.328	35.6566
3450.000000	87.457	41.9755
3550.000000	86.702	46.2966
3650.000000	86.349	61.9157
3750.000000	87.503	72.4351
3870.000000	88.125	76.9620
4000.000000	88.016	82.0620
4120.000000	88.208	88.7318
4250.000000	87.703	89.9674
4370.000000	87.097	107.3653
4500.000000	87.581	114.4127
4620.000000	86.902	128.1217
4750.000000	87.267	136.7770
4870.000000	86.243	140.5632
5000.000000	86.360	155.6240
5150.000000	86.028	162.0786
5300.000000	84.848	177.3526
5450.000000	84.196	-168.8784
5600.000000	84.497	-151.5624
5800.000000	85.431	-135.8071
6000.000000	85.089	-132.3083
6150.000000	83.604	-125.0799
6300.000000	82.775	-115.5074
6500.000000	80.195	-96.3422
6700.000000	79.235	-68.1559
6900.000000	80.920	-48.8247
7100.000000	81.553	-34.7427
7300.000000	81.819	-23.7922
7500.000000	82.180	-11.2573
7750.000000	82.856	1.4478
8000.000000	84.906	14.1718
8250.000000	86.547	-0.9149
8500.000000	83.140	-18.9188
8750.000000	77.980	-43.1903
9000.000000	68.867	-80.2432
9250.000000	66.445	50.1431
9500.000000	70.782	-166.6630
9750.000000	74.155	-140.6465
10000.000000	73.519	-157.5254
10300.000000	73.316	-103.2143
10600.000000	78.658	-109.1095
10900.000000	77.675	-111.8773
11200.000000	74.460	-116.9130
11500.000000	73.213	-74.1970
11800.000000	78.961	-63.5979
12200.000000	77.066	-90.1787
12500.000000	73.933	-76.5415
12800.000000	72.595	-59.0235
13200.000000	71.638	-43.9490
13600.000000	68.158	-41.4056
14000.000000	60.142	-96.0133
14500.000000	60.981	-25.2675
15000.000000	69.922	-117.3774
15500.000000	71.956	-107.8458
16000.000000	75.088	-104.1348
16500.000000	76.293	-139.1785
17000.000000	73.155	-173.6047
17500.000000	72.344	171.4922
18000.000000	70.479	131.7986
18500.000000	67.841	143.3400
19000.000000	66.773	105.9691
19500.000000	54.911	118.1567
