* Measurement data measured by REW V5.20.13
* Source: Headset (USB-C to 3.5mm Headphone Jack Adapter), MICROPHONE (Master Volume), R, volume: 0.630. Timing signal peak level -37.1 dBFS, measurement signal peak level -17.5 dBFS
* Format: 512k Log Swept Sine, 1 sweep using an acoustic timing reference
* Dated: Oct 22, 2023 4:50:12 PM
* REW Settings:
*  C-weighting compensation: Off
*  Target level: 75.0 dB
* Note: ; Delay -0.1226 ms (-42 mm, -1.66 in) using estimated IR delay relative to Acoustic reference played from 512kMeasSweep_20_to_20000_48k_PCM24_LR_refL.wav with no timing offset Clock adjustment: -2.5 ppm
* Measurement: Heavys L
* Smoothing: 1/48 octave
* Frequency Step: 1/24 octave
* Start Frequency: 20.600 Hz
*
* Freq(Hz)	SPL(dB)	Phase(degrees)
20.600000	82.575	-107.4198
21.200001	81.465	-102.8012
21.799999	82.400	-93.7081
22.400000	84.116	-95.5094
23.000000	84.642	-104.1386
23.600000	83.924	-109.2643
24.299999	83.345	-104.8356
25.000000	84.510	-100.9738
25.799999	85.425	-106.6226
26.500000	85.152	-113.7049
27.200001	84.996	-118.1088
28.000000	85.396	-119.8120
29.000000	85.436	-121.5818
30.000000	85.434	-122.5751
30.700001	85.677	-123.8835
31.500000	85.662	-127.0334
32.500000	85.621	-130.9448
33.500000	86.013	-134.8348
34.500000	85.827	-136.4280
35.500000	85.707	-137.5057
36.500000	85.787	-141.5521
37.500000	85.523	-143.3074
38.700001	85.469	-144.6628
40.000000	85.278	-146.7143
41.200001	85.131	-149.3060
42.500000	84.828	-149.5179
43.700001	84.747	-151.2924
45.000000	84.635	-151.8889
46.200001	84.632	-151.6536
47.500000	84.551	-151.6421
48.700001	84.445	-150.8105
50.000000	84.825	-151.2348
51.500000	83.366	-150.4595
53.000000	83.932	-148.5569
54.500000	85.722	-157.3287
56.000000	86.008	-153.1464
58.000000	86.519	-160.0385
60.000000	85.679	-163.1992
61.500000	86.023	-164.3280
63.000000	86.142	-166.4966
65.000000	86.106	-169.8570
67.000000	86.064	-172.9852
69.000000	85.912	-176.2581
71.000000	85.774	-179.2402
73.000000	85.364	178.9176
75.000000	84.927	174.1525
77.500000	84.927	175.2262
80.000000	84.480	179.4182
82.500000	84.453	171.9773
85.000000	84.442	172.0189
87.500000	84.177	171.6198
90.000000	84.065	164.0092
92.500000	82.710	165.4941
95.000000	82.450	166.3522
97.500000	81.699	171.7589
100.000000	82.084	179.2704
103.000000	82.261	-177.9838
106.000000	82.854	176.5607
109.000000	83.608	178.3494
112.000000	83.208	179.7957
115.000000	83.468	168.5600
118.000000	83.747	177.7647
122.000000	83.575	167.4521
125.000000	83.424	167.9053
128.000000	83.848	165.7226
132.000000	83.564	161.9763
136.000000	83.316	159.7976
140.000000	83.392	158.8650
145.000000	82.616	155.9139
150.000000	82.659	154.8536
155.000000	81.855	157.4753
160.000000	82.138	155.8604
165.000000	81.922	151.3405
170.000000	82.099	152.0917
175.000000	81.338	150.6547
180.000000	80.811	149.3926
185.000000	80.590	149.2070
190.000000	80.404	147.1642
195.000000	80.263	147.2977
200.000000	79.667	147.0918
206.000000	79.297	147.8952
212.000000	79.017	148.2007
218.000000	78.666	148.3481
224.000000	78.303	148.6038
230.000000	77.961	149.4665
236.000000	77.665	150.4632
243.000000	77.330	151.5760
250.000000	76.983	152.9729
258.000000	76.642	154.9343
265.000000	76.379	156.8017
272.000000	76.155	158.7800
280.000000	75.962	161.0592
290.000000	75.793	164.0886
300.000000	75.766	166.8513
307.000000	75.709	168.5701
315.000000	75.718	170.3453
325.000000	75.739	172.4170
335.000000	75.782	174.2161
345.000000	75.850	175.8282
355.000000	75.926	177.1958
365.000000	76.008	178.3077
375.000000	76.105	179.1818
387.000000	76.214	179.9139
400.000000	76.288	-179.4457
412.000000	76.323	-179.0087
425.000000	76.374	-178.7922
437.000000	76.355	-178.4320
450.000000	76.322	-177.9942
462.000000	76.341	-177.8382
475.000000	76.309	-177.6178
487.000000	76.252	-177.4751
500.000000	76.148	-177.1976
515.000000	76.038	-176.6049
530.000000	75.915	-175.9212
545.000000	75.792	-175.0544
560.000000	75.675	-173.9369
580.000000	75.549	-172.4093
600.000000	75.447	-170.6572
615.000000	75.384	-169.1229
630.000000	75.388	-167.5575
650.000000	75.463	-165.7971
670.000000	75.547	-164.7187
690.000000	75.619	-163.9372
710.000000	75.636	-163.5079
730.000000	75.621	-163.1516
750.000000	75.573	-162.7527
775.000000	75.460	-162.4926
800.000000	75.258	-161.9502
825.000000	75.000	-161.0046
850.000000	74.706	-159.4729
875.000000	74.442	-156.9775
900.000000	74.350	-153.9790
925.000000	74.410	-151.5358
950.000000	74.434	-150.1094
975.000000	74.347	-148.9132
1000.000000	74.194	-147.2157
1030.000000	74.039	-144.4943
1060.000000	73.934	-141.6969
1090.000000	73.875	-138.7909
1120.000000	73.863	-135.7606
1150.000000	73.866	-132.9016
1180.000000	73.880	-130.1940
1220.000000	73.918	-126.5037
1250.000000	73.970	-123.6081
1280.000000	74.045	-120.6098
1320.000000	74.199	-116.6564
1360.000000	74.396	-112.7774
1400.000000	74.631	-109.1435
1450.000000	74.946	-104.6842
1500.000000	75.370	-100.3589
1550.000000	75.848	-96.4494
1600.000000	76.367	-93.0656
1650.000000	76.903	-90.0258
1700.000000	77.490	-87.3590
1750.000000	78.115	-85.4105
1800.000000	78.748	-83.8635
1850.000000	79.400	-82.8134
1900.000000	80.043	-82.0789
1950.000000	80.738	-81.3653
2000.000000	81.553	-81.1825
2060.000000	82.549	-82.7867
2120.000000	83.396	-85.3754
2180.000000	84.151	-88.4525
2240.000000	84.786	-91.8752
2300.000000	85.333	-95.6642
2360.000000	85.740	-99.5171
2430.000000	86.084	-103.9810
2500.000000	86.278	-108.0438
2580.000000	86.383	-112.4632
2650.000000	86.404	-115.8411
2720.000000	86.375	-118.7006
2800.000000	86.273	-121.9626
2900.000000	85.965	-125.1565
3000.000000	85.544	-126.6758
3070.000000	85.238	-127.0124
3150.000000	84.880	-126.9191
3250.000000	84.427	-126.2848
3350.000000	83.964	-125.4240
3450.000000	83.403	-124.4031
3550.000000	82.742	-123.1650
3650.000000	81.928	-121.2569
3750.000000	80.965	-118.3215
3870.000000	79.680	-112.5114
4000.000000	78.457	-102.6222
4120.000000	77.652	-91.7793
4250.000000	77.118	-78.8473
4370.000000	77.004	-66.4699
4500.000000	77.327	-54.3940
4620.000000	77.749	-45.6715
4750.000000	78.289	-38.7081
4870.000000	78.532	-34.3336
5000.000000	78.471	-30.0420
5150.000000	78.150	-23.7662
5300.000000	77.847	-15.2374
5450.000000	77.791	-5.1284
5600.000000	78.160	4.0562
5800.000000	78.749	10.8961
6000.000000	78.718	14.7412
6150.000000	78.390	18.1509
6300.000000	77.996	21.4769
6500.000000	77.332	25.3227
6700.000000	76.557	29.2831
6900.000000	75.689	33.5197
7100.000000	74.678	38.8890
7300.000000	73.760	45.9909
7500.000000	73.096	54.8648
7750.000000	72.987	65.5182
8000.000000	73.310	69.7693
8250.000000	72.762	67.1575
8500.000000	71.135	71.8308
8750.000000	71.022	80.6682
9000.000000	72.167	78.1741
9250.000000	72.454	57.3249
9500.000000	70.253	31.0022
9750.000000	67.231	10.1618
10000.000000	65.021	-6.0050
10300.000000	64.281	-16.6396
10600.000000	65.425	-19.8756
10900.000000	67.421	-22.0373
11200.000000	68.563	-25.3945
11500.000000	69.405	-22.6994
11800.000000	70.458	-20.3635
12200.000000	71.076	-17.6729
12500.000000	71.572	-15.9072
12800.000000	70.981	-13.2453
13200.000000	70.726	-1.4748
13600.000000	71.113	9.7673
14000.000000	71.867	18.0000
14500.000000	73.299	22.6269
15000.000000	74.099	9.3039
15500.000000	71.058	-1.8544
16000.000000	68.778	7.4905
16500.000000	67.417	1.7187
17000.000000	63.734	8.8941
17500.000000	62.500	17.1838
18000.000000	62.881	15.3863
18500.000000	62.836	-15.0850
19000.000000	59.431	-55.9668
19500.000000	54.103	-101.9247
