* Measurement data measured by REW V5.20.13
* Source: Headset (2- USB-C to 3.5mm Headphone Jack Adapter), MICROPHONE (Master Volume), L, volume: 0.250
* Format: 512k Log Swept Sine, 1 sweep at -5.0 dBFS with no timing reference
* Dated: Feb 12, 2023 6:28:31 PM
* REW Settings:
*  C-weighting compensation: Off
*  Target level: 75.0 dB
* Note: ; 
* Measurement: Momentum 4 EQ L
* Smoothing: 1/12 octave
* Frequency Step: 1/24 octave
* Start Frequency: 20.600 Hz
*
* Freq(Hz)	SPL(dB)	Phase(degrees)
20.600000	86.388	-113.6148
21.200001	86.606	-116.8380
21.799999	86.799	-119.8066
22.400000	86.965	-122.2824
23.000000	87.124	-124.6821
23.600000	87.291	-127.3366
24.299999	87.510	-130.6469
25.000000	87.732	-133.9163
25.799999	87.936	-137.6043
26.500000	88.062	-140.7722
27.200001	88.172	-143.7231
28.000000	88.293	-146.8995
29.000000	88.422	-150.9151
30.000000	88.537	-154.8139
30.700001	88.610	-157.3911
31.500000	88.686	-160.3021
32.500000	88.775	-163.9698
33.500000	88.846	-167.5307
34.500000	88.904	-170.8441
35.500000	88.942	-174.1317
36.500000	88.946	-177.5115
37.500000	88.930	179.1831
38.700001	88.900	175.4152
40.000000	88.885	171.6229
41.200001	88.859	168.0655
42.500000	88.805	164.3173
43.700001	88.726	161.0917
45.000000	88.611	157.8411
46.200001	88.512	154.8582
47.500000	88.407	151.7589
48.700001	88.303	149.0146
50.000000	88.190	146.0280
51.500000	88.061	142.7819
53.000000	87.856	139.5593
54.500000	87.645	136.4843
56.000000	87.424	133.5311
58.000000	87.118	129.8775
60.000000	86.807	126.5482
61.500000	86.603	124.2615
63.000000	86.373	122.0212
65.000000	86.012	119.3459
67.000000	85.643	117.1186
69.000000	85.285	115.2698
71.000000	84.979	113.9378
73.000000	84.756	112.7584
75.000000	84.585	111.4705
77.500000	84.422	109.5178
80.000000	84.185	107.2939
82.500000	83.908	105.1362
85.000000	83.618	103.3521
87.500000	83.316	101.9571
90.000000	83.071	100.8582
92.500000	82.868	99.8529
95.000000	82.668	98.8627
97.500000	82.494	97.8434
100.000000	82.321	96.8928
103.000000	82.122	95.8914
106.000000	81.958	94.9476
109.000000	81.825	94.1750
112.000000	81.735	93.3442
115.000000	81.654	92.4342
118.000000	81.572	91.6617
122.000000	81.520	90.6741
125.000000	81.526	89.7344
128.000000	81.546	88.4378
132.000000	81.561	86.3549
136.000000	81.525	84.2559
140.000000	81.469	82.3034
145.000000	81.379	79.9675
150.000000	81.299	77.6276
155.000000	81.210	75.2852
160.000000	81.107	72.9260
165.000000	81.002	70.6179
170.000000	80.871	68.4633
175.000000	80.734	66.5705
180.000000	80.628	64.9233
185.000000	80.533	63.2784
190.000000	80.443	61.6935
195.000000	80.358	60.2446
200.000000	80.286	58.9160
206.000000	80.233	57.4871
212.000000	80.224	56.0689
218.000000	80.240	54.8089
224.000000	80.287	53.5033
230.000000	80.361	52.0740
236.000000	80.468	50.5791
243.000000	80.625	48.6616
250.000000	80.807	46.5824
258.000000	81.043	43.8383
265.000000	81.260	41.0894
272.000000	81.453	38.0562
280.000000	81.628	34.3640
290.000000	81.785	29.7618
300.000000	81.901	25.3356
307.000000	81.996	22.3094
315.000000	82.124	18.8926
325.000000	82.295	14.3789
335.000000	82.428	9.5687
345.000000	82.511	4.7830
355.000000	82.560	0.1552
365.000000	82.590	-4.3958
375.000000	82.608	-8.9271
387.000000	82.607	-14.3375
400.000000	82.573	-19.9974
412.000000	82.514	-24.9097
425.000000	82.437	-29.8032
437.000000	82.402	-34.1444
450.000000	82.401	-38.9986
462.000000	82.382	-43.6246
475.000000	82.323	-48.6026
487.000000	82.252	-52.9501
500.000000	82.174	-57.3679
515.000000	82.107	-62.3467
530.000000	82.053	-67.2438
545.000000	81.974	-71.9299
560.000000	81.908	-76.2080
580.000000	81.900	-81.6520
600.000000	81.942	-87.2390
615.000000	81.966	-91.4955
630.000000	81.987	-95.5759
650.000000	82.051	-100.7732
670.000000	82.181	-106.0165
690.000000	82.341	-111.6473
710.000000	82.468	-117.6664
730.000000	82.515	-123.6783
750.000000	82.503	-129.2328
775.000000	82.493	-135.4292
800.000000	82.551	-140.9937
825.000000	82.717	-146.1411
850.000000	83.010	-151.3950
875.000000	83.394	-157.2526
900.000000	83.782	-163.8505
925.000000	84.122	-170.9927
950.000000	84.408	-178.4598
975.000000	84.645	173.9763
1000.000000	84.842	166.3154
1030.000000	85.024	156.8431
1060.000000	85.094	147.1462
1090.000000	85.013	137.5984
1120.000000	84.802	128.7241
1150.000000	84.530	120.7302
1180.000000	84.246	113.5092
1220.000000	83.888	104.7895
1250.000000	83.645	98.8226
1280.000000	83.423	93.2968
1320.000000	83.190	86.5307
1360.000000	83.033	80.2746
1400.000000	82.937	74.3876
1450.000000	82.904	67.7982
1500.000000	83.065	62.0807
1550.000000	83.477	56.0831
1600.000000	84.023	49.2269
1650.000000	84.630	41.4293
1700.000000	85.253	32.7430
1750.000000	85.828	23.3282
1800.000000	86.343	13.5905
1850.000000	86.832	3.7849
1900.000000	87.322	-6.1485
1950.000000	87.808	-16.3658
2000.000000	88.253	-26.8735
2060.000000	88.695	-39.6248
2120.000000	89.062	-52.2852
2180.000000	89.347	-65.2183
2240.000000	89.468	-78.1624
2300.000000	89.431	-90.7179
2360.000000	89.210	-102.6544
2430.000000	88.728	-115.3325
2500.000000	87.976	-125.7186
2580.000000	86.952	-132.1633
2650.000000	86.687	-131.8221
2720.000000	87.926	-131.6602
2800.000000	89.564	-143.2079
2900.000000	89.537	-164.3958
3000.000000	88.497	-176.5503
3070.000000	87.865	178.9703
3150.000000	87.372	176.4402
3250.000000	87.312	176.1346
3350.000000	88.134	175.8258
3450.000000	89.431	170.9282
3550.000000	90.365	160.2765
3650.000000	90.470	147.2339
3750.000000	89.751	136.5426
3870.000000	88.309	131.4656
4000.000000	87.280	134.7833
4120.000000	87.512	139.1256
4250.000000	88.299	139.7264
4370.000000	88.832	137.2472
4500.000000	89.087	134.0929
4620.000000	89.173	131.6370
4750.000000	89.120	129.3809
4870.000000	88.943	128.1436
5000.000000	88.707	127.7668
5150.000000	88.468	128.0544
5300.000000	88.246	128.3270
5450.000000	87.894	127.8418
5600.000000	87.146	126.7080
5800.000000	85.030	130.3654
6000.000000	82.615	149.2455
6150.000000	82.180	167.7024
6300.000000	82.705	-176.4844
6500.000000	84.011	-159.6133
6700.000000	85.714	-147.2358
6900.000000	87.642	-139.8372
7100.000000	89.407	-139.0060
7300.000000	90.360	-144.9348
7500.000000	90.047	-152.9801
7750.000000	88.137	-156.6121
8000.000000	85.478	-150.6101
8250.000000	82.740	-137.5322
8500.000000	80.147	-118.9859
8750.000000	77.877	-97.4194
9000.000000	75.769	-74.5566
9250.000000	73.539	-49.5743
9500.000000	71.081	-20.4480
9750.000000	68.668	13.3857
10000.000000	66.700	46.4767
10300.000000	63.994	77.1945
10600.000000	60.372	71.3771
10900.000000	60.460	21.0486
11200.000000	65.866	9.5994
11500.000000	70.210	33.7551
11800.000000	73.503	65.1314
12200.000000	77.345	109.2692
12500.000000	79.828	140.0502
12800.000000	82.009	168.5101
13200.000000	84.217	-160.6671
13600.000000	84.391	-137.1919
14000.000000	82.148	-103.5275
14500.000000	78.458	-36.1824
15000.000000	77.101	39.3492
15500.000000	77.547	105.0124
16000.000000	76.944	158.6959
16500.000000	74.379	-139.4874
17000.000000	72.451	-68.0918
17500.000000	72.348	-3.7525
18000.000000	72.589	48.7136
18500.000000	72.907	89.0736
19000.000000	73.199	108.0090
19500.000000	71.970	101.5463
