* Measurement data measured by REW V5.20.13
* Source: Headset (2- USB-C to 3.5mm Headphone Jack Adapter), MICROPHONE (Master Volume), L, volume: 0.250
* Format: 512k Log Swept Sine, 1 sweep at -5.0 dBFS with no timing reference
* Dated: Feb 12, 2023 6:22:58 PM
* REW Settings:
*  C-weighting compensation: Off
*  Target level: 75.0 dB
* Note: ; 
* Measurement: Momentum 4 L
* Smoothing: 1/12 octave
* Frequency Step: 1/24 octave
* Start Frequency: 20.600 Hz
*
* Freq(Hz)	SPL(dB)	Phase(degrees)
20.600000	87.542	-113.1868
21.200001	87.782	-116.0249
21.799999	88.015	-118.8714
22.400000	88.235	-121.7079
23.000000	88.447	-124.7263
23.600000	88.629	-127.8773
24.299999	88.791	-131.5047
25.000000	88.937	-134.8303
25.799999	89.126	-138.1040
26.500000	89.279	-140.7533
27.200001	89.396	-143.5651
28.000000	89.509	-146.9729
29.000000	89.653	-151.0285
30.000000	89.795	-154.8431
30.700001	89.881	-157.5015
31.500000	89.969	-160.4776
32.500000	90.071	-164.0614
33.500000	90.151	-167.6376
34.500000	90.200	-171.1624
35.500000	90.231	-174.5640
36.500000	90.259	-177.9372
37.500000	90.272	178.8198
38.700001	90.257	175.1382
40.000000	90.249	171.2406
41.200001	90.224	167.5594
42.500000	90.145	163.8243
43.700001	90.073	160.5361
45.000000	89.988	157.1086
46.200001	89.874	154.1947
47.500000	89.747	151.0311
48.700001	89.669	147.9423
50.000000	89.569	144.8121
51.500000	89.406	141.4364
53.000000	89.212	138.1929
54.500000	89.014	135.1028
56.000000	88.814	132.1852
58.000000	88.540	128.5815
60.000000	88.264	125.2274
61.500000	88.045	122.7209
63.000000	87.807	120.3788
65.000000	87.463	117.6021
67.000000	87.116	115.2630
69.000000	86.798	113.4923
71.000000	86.565	112.0012
73.000000	86.377	110.4076
75.000000	86.196	108.5347
77.500000	85.942	106.0038
80.000000	85.644	103.7523
82.500000	85.350	101.8608
85.000000	85.090	100.1203
87.500000	84.840	98.5110
90.000000	84.610	97.1348
92.500000	84.408	95.7735
95.000000	84.206	94.4230
97.500000	84.016	93.2058
100.000000	83.848	92.1801
103.000000	83.641	90.9713
106.000000	83.468	89.8115
109.000000	83.338	88.7972
112.000000	83.217	87.8102
115.000000	83.107	86.8824
118.000000	83.035	85.9428
122.000000	83.010	84.5659
125.000000	83.023	83.2812
128.000000	83.036	81.7017
132.000000	83.017	79.3209
136.000000	82.952	76.9481
140.000000	82.877	74.7043
145.000000	82.786	71.9143
150.000000	82.688	69.0273
155.000000	82.563	66.2633
160.000000	82.430	63.5604
165.000000	82.279	61.0055
170.000000	82.107	58.6319
175.000000	81.943	56.4832
180.000000	81.802	54.5316
185.000000	81.674	52.6083
190.000000	81.545	50.7977
195.000000	81.414	49.1174
200.000000	81.302	47.6076
206.000000	81.204	45.9754
212.000000	81.145	44.3914
218.000000	81.117	42.7875
224.000000	81.122	41.1650
230.000000	81.153	39.5632
236.000000	81.213	37.8459
243.000000	81.318	35.7189
250.000000	81.449	33.4108
258.000000	81.622	30.4315
265.000000	81.769	27.5226
272.000000	81.891	24.3638
280.000000	81.992	20.6323
290.000000	82.076	16.0332
300.000000	82.130	11.6453
307.000000	82.176	8.6553
315.000000	82.249	5.1991
325.000000	82.345	0.7323
335.000000	82.405	-3.9353
345.000000	82.424	-8.6767
355.000000	82.413	-13.2154
365.000000	82.400	-17.6373
375.000000	82.387	-22.0795
387.000000	82.331	-27.3777
400.000000	82.238	-32.8792
412.000000	82.140	-37.6741
425.000000	82.025	-42.4508
437.000000	81.953	-46.6553
450.000000	81.913	-51.3392
462.000000	81.864	-55.8358
475.000000	81.780	-60.6160
487.000000	81.688	-64.7661
500.000000	81.593	-69.0156
515.000000	81.507	-73.8198
530.000000	81.416	-78.5493
545.000000	81.318	-83.0367
560.000000	81.243	-87.1425
580.000000	81.226	-92.4116
600.000000	81.257	-97.8932
615.000000	81.269	-102.0261
630.000000	81.285	-105.9882
650.000000	81.353	-111.1302
670.000000	81.491	-116.4141
690.000000	81.650	-122.1943
710.000000	81.746	-128.2688
730.000000	81.765	-134.2601
750.000000	81.745	-139.7764
775.000000	81.728	-145.9687
800.000000	81.791	-151.6202
825.000000	81.976	-156.9822
850.000000	82.285	-162.5557
875.000000	82.662	-168.7994
900.000000	83.028	-175.7408
925.000000	83.343	176.8423
950.000000	83.602	169.1673
975.000000	83.820	161.4105
1000.000000	84.006	153.6062
1030.000000	84.165	144.0125
1060.000000	84.206	134.2263
1090.000000	84.107	124.6718
1120.000000	83.904	115.8264
1150.000000	83.639	107.8143
1180.000000	83.363	100.5634
1220.000000	83.014	91.8915
1250.000000	82.782	85.9810
1280.000000	82.578	80.5236
1320.000000	82.367	73.8431
1360.000000	82.233	67.6504
1400.000000	82.152	61.8328
1450.000000	82.131	55.3260
1500.000000	82.318	49.6443
1550.000000	82.741	43.5839
1600.000000	83.283	36.6465
1650.000000	83.867	28.8107
1700.000000	84.447	20.1907
1750.000000	84.986	10.9702
1800.000000	85.485	1.5660
1850.000000	85.986	-7.9561
1900.000000	86.491	-17.8390
1950.000000	86.976	-28.1587
2000.000000	87.408	-38.8273
2060.000000	87.832	-51.7324
2120.000000	88.187	-64.5244
2180.000000	88.469	-77.5455
2240.000000	88.601	-90.5488
2300.000000	88.577	-103.2888
2360.000000	88.375	-115.4687
2430.000000	87.911	-128.4197
2500.000000	87.171	-138.9781
2580.000000	86.146	-145.5623
2650.000000	85.837	-145.2837
2720.000000	87.031	-144.8292
2800.000000	88.713	-155.7848
2900.000000	88.812	-177.0771
3000.000000	87.828	170.0505
3070.000000	87.183	165.2344
3150.000000	86.644	162.5662
3250.000000	86.534	162.3239
3350.000000	87.318	162.1970
3450.000000	88.588	157.5118
3550.000000	89.515	147.0066
3650.000000	89.629	134.0144
3750.000000	88.925	123.3281
3870.000000	87.506	118.2112
4000.000000	86.497	121.3964
4120.000000	86.733	125.6176
4250.000000	87.525	126.2141
4370.000000	88.062	123.7825
4500.000000	88.316	120.6824
4620.000000	88.398	118.2136
4750.000000	88.328	115.8403
4870.000000	88.122	114.4808
5000.000000	87.849	114.0740
5150.000000	87.551	114.5775
5300.000000	87.284	115.4543
5450.000000	86.936	115.6520
5600.000000	86.207	115.0887
5800.000000	84.107	119.7502
6000.000000	81.820	139.1472
6150.000000	81.460	157.2825
6300.000000	81.985	172.8004
6500.000000	83.266	-170.4490
6700.000000	84.949	-158.0005
6900.000000	86.863	-150.5830
7100.000000	88.620	-149.9832
7300.000000	89.578	-156.3964
7500.000000	89.281	-165.0012
7750.000000	87.386	-169.2903
8000.000000	84.706	-163.7528
8250.000000	81.918	-150.7605
8500.000000	79.281	-131.9863
8750.000000	76.974	-109.8583
9000.000000	74.823	-86.1196
9250.000000	72.533	-60.1738
9500.000000	70.007	-29.8677
9750.000000	67.574	5.4368
10000.000000	65.697	40.3280
10300.000000	63.137	80.6295
10600.000000	59.510	139.9716
10900.000000	59.073	-105.0705
11200.000000	64.784	-15.3289
11500.000000	69.509	30.7965
11800.000000	73.006	65.4244
12200.000000	76.794	109.7209
12500.000000	79.159	141.2764
12800.000000	81.250	171.3663
13200.000000	83.417	-155.1974
13600.000000	83.571	-129.2204
14000.000000	81.319	-93.1441
14500.000000	77.642	-23.1235
15000.000000	76.294	55.1112
15500.000000	76.688	124.2932
16000.000000	76.017	-177.2836
16500.000000	73.449	-109.7903
17000.000000	71.618	-33.1350
17500.000000	71.562	36.1080
18000.000000	71.773	92.9518
18500.000000	72.065	137.4530
19000.000000	72.369	159.6649
19500.000000	71.221	154.4496
